Data from HR4C13841_10-33-11-877.txt Node
Date: Thu May 26 10:33:11 EEST 2016
User: jaakko
Spectrometer: HR4C1384
Trigger mode: 4
Integration Time (sec): 2,000000E-2
Scans to average: 5
Electric dark correction enabled: true
Nonlinearity correction enabled: false
Boxcar width: 0
XAxis mode: Wavelengths
Number of Pixels in Spectrum: 3648
>>>>>Begin Spectral Data<<<<<
195,054	16,77
195,325	16,77
195,596	16,77
195,867	-6,83
196,138	-5,83
196,409	-6,83
196,68	-5,23
196,951	-0,63
197,222	-5,43
197,493	-8,83
197,764	-4,63
198,035	-2,23
198,306	-3,83
198,577	-2,63
198,848	-2,83
199,119	-4,23
199,389	-6,63
199,66	-1,23
199,931	0,37
200,202	-5,23
200,473	-0,03
200,744	4,57
201,014	-1,03
201,285	-2,03
201,556	0,17
201,827	0,17
202,097	-4,23
202,368	-3,23
202,639	0,97
202,91	1,37
203,18	0,57
203,451	-3,83
203,722	1,37
203,992	-2,43
204,263	-0,43
204,534	-2,83
204,804	0,77
205,075	0,97
205,346	-6,23
205,616	-5,63
205,887	-0,23
206,158	2,17
206,428	2,17
206,699	0,97
206,969	2,57
207,24	1,97
207,51	-1,03
207,781	-0,63
208,052	1,57
208,322	6,77
208,593	0,77
208,863	10,37
209,134	9,57
209,404	1,97
209,675	5,37
209,945	2,17
210,215	-0,03
210,486	9,57
210,756	5,77
211,027	4,97
211,297	1,97
211,568	5,37
211,838	0,37
212,108	0,17
212,379	7,77
212,649	9,57
212,92	7,97
213,19	5,17
213,46	-2,03
213,731	0,97
214,001	4,57
214,271	0,37
214,542	1,37
214,812	1,97
215,082	-2,03
215,352	0,37
215,623	-3,43
215,893	-2,03
216,163	-2,63
216,433	-5,23
216,704	1,57
216,974	0,17
217,244	-4,63
217,514	4,17
217,784	3,37
218,055	5,37
218,325	7,57
218,595	7,77
218,865	2,77
219,135	-0,83
219,405	-2,23
219,675	2,97
219,945	-3,03
220,216	0,57
220,486	0,97
220,756	-1,43
221,026	-3,63
221,296	-0,83
221,566	-0,23
221,836	1,97
222,106	3,77
222,376	4,57
222,646	4,37
222,916	7,17
223,186	5,57
223,456	0,57
223,726	8,37
223,996	-0,83
224,266	-0,63
224,536	-1,23
224,806	0,77
225,076	5,77
225,345	5,17
225,615	7,57
225,885	1,37
226,155	3,77
226,425	8,57
226,695	1,77
226,965	-1,63
227,235	0,17
227,504	0,37
227,774	2,37
228,044	-7,23
228,314	-1,23
228,584	3,97
228,853	0,77
229,123	0,77
229,393	-8,63
229,663	-5,83
229,932	0,77
230,202	4,17
230,472	-3,03
230,741	-0,23
231,011	2,17
231,281	-0,83
231,551	-2,03
231,82	-2,23
232,09	2,77
232,36	4,97
232,629	4,77
232,899	-0,63
233,168	0,57
233,438	4,57
233,708	2,57
233,977	-1,23
234,247	-4,23
234,516	-0,63
234,786	0,37
235,055	-0,63
235,325	-1,23
235,595	-1,43
235,864	-1,23
236,134	5,17
236,403	8,77
236,673	4,57
236,942	7,17
237,212	6,17
237,481	4,77
237,75	9,57
238,02	4,77
238,289	3,57
238,559	2,97
238,828	0,77
239,098	0,17
239,367	0,57
239,636	-1,23
239,906	-0,63
240,175	-0,03
240,444	2,17
240,714	-3,03
240,983	-2,43
241,252	-1,83
241,522	2,97
241,791	-1,63
242,06	-4,83
242,33	-4,43
242,599	-0,23
242,868	-1,23
243,137	-3,03
243,407	1,57
243,676	-2,63
243,945	-2,03
244,214	3,37
244,484	0,57
244,753	-2,63
245,022	-4,43
245,291	3,17
245,56	-0,83
245,829	-7,63
246,099	-1,83
246,368	-3,03
246,637	3,57
246,906	4,97
247,175	1,37
247,444	-0,83
247,713	6,77
247,982	2,57
248,251	-3,63
248,52	0,77
248,79	4,77
249,059	2,37
249,328	-0,03
249,597	2,57
249,866	1,57
250,135	-0,23
250,404	6,97
250,673	0,37
250,942	-4,83
251,211	-1,63
251,479	2,77
251,748	-0,43
252,017	-0,23
252,286	2,17
252,555	0,57
252,824	-3,63
253,093	-4,03
253,362	0,37
253,631	0,77
253,9	1,77
254,168	-0,63
254,437	0,37
254,706	-7,03
254,975	-1,63
255,244	-3,63
255,513	6,97
255,781	11,17
256,05	10,97
256,319	-0,23
256,588	0,57
256,856	-2,03
257,125	-2,23
257,394	-3,43
257,663	1,57
257,931	-4,63
258,2	-0,23
258,469	0,97
258,737	-1,63
259,006	-4,23
259,275	-2,03
259,543	-2,83
259,812	0,77
260,081	2,37
260,349	1,57
260,618	1,57
260,887	3,77
261,155	2,37
261,424	2,37
261,692	-2,63
261,961	-2,43
262,229	2,97
262,498	2,37
262,767	2,17
263,035	-7,03
263,304	-2,83
263,572	0,17
263,841	2,97
264,109	2,77
264,378	5,57
264,646	10,37
264,915	7,37
265,183	0,37
265,451	-2,43
265,72	-2,23
265,988	1,17
266,257	0,17
266,525	-5,63
266,793	3,97
267,062	2,97
267,33	-4,43
267,599	-1,23
267,867	4,57
268,135	-1,03
268,404	-2,43
268,672	-3,23
268,94	-5,63
269,209	0,57
269,477	6,37
269,745	4,37
270,013	1,17
270,282	-2,83
270,55	3,57
270,818	6,17
271,086	0,17
271,355	-1,83
271,623	1,57
271,891	1,37
272,159	-1,43
272,427	1,37
272,696	2,57
272,964	3,37
273,232	0,17
273,5	4,17
273,768	-5,43
274,036	0,17
274,305	-0,23
274,573	-0,03
274,841	-3,63
275,109	-0,43
275,377	-0,83
275,645	-5,23
275,913	-2,83
276,181	-0,63
276,449	-3,23
276,717	1,17
276,985	2,17
277,253	-0,43
277,521	-0,03
277,789	-5,83
278,057	2,17
278,325	-1,83
278,593	-5,83
278,861	3,77
279,129	3,17
279,397	-4,23
279,665	-4,63
279,933	-3,83
280,201	-4,23
280,469	-0,43
280,736	4,17
281,004	5,77
281,272	-6,43
281,54	2,77
281,808	-3,83
282,076	1,17
282,344	-0,63
282,611	1,37
282,879	-6,23
283,147	-2,43
283,415	0,77
283,683	-0,03
283,95	-6,83
284,218	-1,03
284,486	-4,23
284,754	-4,03
285,021	0,17
285,289	-3,23
285,557	-1,43
285,824	5,77
286,092	-0,83
286,36	-2,23
286,628	-3,43
286,895	6,57
287,163	-0,63
287,43	-1,83
287,698	-4,83
287,966	2,77
288,233	-2,83
288,501	0,37
288,769	0,57
289,036	0,57
289,304	2,17
289,571	2,77
289,839	-1,23
290,106	-0,63
290,374	-3,83
290,641	-3,43
290,909	-5,03
291,176	-4,43
291,444	2,77
291,711	0,37
291,979	-5,03
292,246	-0,83
292,514	-3,03
292,781	-5,63
293,049	1,97
293,316	-1,03
293,584	1,77
293,851	-1,03
294,118	-3,83
294,386	-2,83
294,653	-1,83
294,921	-1,03
295,188	-0,23
295,455	-2,43
295,723	-2,23
295,99	-4,83
296,257	4,97
296,525	-1,23
296,792	-5,03
297,059	0,17
297,326	-3,63
297,594	-3,63
297,861	-1,83
298,128	-1,03
298,396	-6,03
298,663	-3,23
298,93	-4,43
299,197	4,57
299,464	1,97
299,732	-3,43
299,999	-4,23
300,266	-1,03
300,533	2,77
300,8	3,17
301,067	-2,63
301,335	-0,63
301,602	4,37
301,869	-0,83
302,136	-1,23
302,403	2,97
302,67	3,97
302,937	-3,43
303,204	-4,23
303,471	-4,23
303,738	1,57
304,005	0,77
304,272	7,17
304,539	-0,03
304,807	-0,23
305,074	-5,63
305,341	-1,83
305,607	-1,63
305,874	4,97
306,141	3,37
306,408	-1,23
306,675	8,17
306,942	1,77
307,209	-1,83
307,476	-4,03
307,743	-3,03
308,01	2,37
308,277	3,77
308,544	3,17
308,811	5,17
309,077	4,77
309,344	3,57
309,611	0,77
309,878	-6,03
310,145	-9,23
310,412	-1,43
310,678	0,37
310,945	5,77
311,212	1,57
311,479	0,57
311,745	-1,43
312,012	-1,63
312,279	2,17
312,546	0,97
312,812	1,37
313,079	-2,23
313,346	-2,23
313,613	-5,23
313,879	-5,23
314,146	0,57
314,413	-0,63
314,679	7,37
314,946	1,77
315,213	0,17
315,479	-5,83
315,746	-0,63
316,012	2,97
316,279	2,17
316,546	-0,23
316,812	-6,03
317,079	-2,03
317,345	2,57
317,612	9,37
317,878	6,37
318,145	3,77
318,411	1,97
318,678	-0,63
318,944	-0,63
319,211	-2,63
319,477	1,77
319,744	3,97
320,01	5,57
320,277	4,37
320,543	-6,23
320,81	-8,63
321,076	-8,23
321,342	-2,03
321,609	6,37
321,875	8,17
322,142	3,77
322,408	-1,03
322,674	3,57
322,941	-2,43
323,207	2,17
323,473	2,57
323,74	3,77
324,006	6,17
324,272	-3,43
324,539	-3,23
324,805	-0,03
325,071	2,17
325,338	-0,43
325,604	4,97
325,87	-2,43
326,136	0,97
326,403	3,17
326,669	0,77
326,935	5,37
327,201	2,97
327,467	-1,63
327,734	1,77
328	0,37
328,266	7,57
328,532	-1,03
328,798	-4,63
329,064	1,37
329,33	4,37
329,597	3,17
329,863	3,57
330,129	4,17
330,395	0,77
330,661	1,77
330,927	-2,43
331,193	-1,83
331,459	-3,03
331,725	0,17
331,991	4,97
332,257	7,77
332,523	5,37
332,789	2,17
333,055	2,97
333,321	1,77
333,587	1,17
333,853	0,97
334,119	-2,63
334,385	3,77
334,651	1,37
334,917	-0,63
335,183	-6,23
335,449	-0,83
335,715	4,57
335,981	3,97
336,246	-4,03
336,512	-0,03
336,778	-1,63
337,044	1,37
337,31	1,17
337,576	7,57
337,842	11,17
338,107	4,17
338,373	3,17
338,639	6,37
338,905	2,77
339,17	-0,63
339,436	0,97
339,702	0,77
339,968	0,17
340,233	-0,03
340,499	1,77
340,765	2,77
341,031	2,17
341,296	7,37
341,562	0,17
341,828	3,77
342,093	10,77
342,359	8,57
342,625	7,97
342,89	3,17
343,156	5,37
343,422	2,57
343,687	3,17
343,953	-0,83
344,218	1,37
344,484	9,37
344,749	2,57
345,015	1,97
345,281	1,77
345,546	3,97
345,812	8,57
346,077	4,37
346,343	9,37
346,608	5,57
346,874	2,37
347,139	4,57
347,405	7,37
347,67	7,77
347,936	1,37
348,201	1,77
348,466	-0,23
348,732	-0,03
348,997	6,37
349,263	3,37
349,528	0,77
349,794	4,37
350,059	2,17
350,324	-2,03
350,59	3,97
350,855	5,97
351,12	1,17
351,386	4,37
351,651	10,17
351,916	6,37
352,182	2,97
352,447	0,77
352,712	2,37
352,977	0,17
353,243	4,37
353,508	5,57
353,773	6,77
354,038	3,37
354,304	-3,03
354,569	1,77
354,834	-1,43
355,099	5,77
355,364	-0,63
355,63	-1,23
355,895	1,57
356,16	1,17
356,425	7,37
356,69	5,77
356,955	1,17
357,221	3,37
357,486	-0,03
357,751	0,17
358,016	1,97
358,281	-4,83
358,546	-1,43
358,811	2,77
359,076	2,57
359,341	-0,83
359,606	0,57
359,871	4,77
360,136	2,17
360,401	8,57
360,666	4,57
360,931	5,57
361,196	2,77
361,461	2,37
361,726	4,77
361,991	4,97
362,256	3,57
362,521	5,37
362,786	2,97
363,051	-1,83
363,316	-2,03
363,581	-0,63
363,846	5,77
364,11	5,57
364,375	4,17
364,64	1,77
364,905	1,57
365,17	8,57
365,435	6,77
365,699	1,17
365,964	0,77
366,229	1,17
366,494	-2,43
366,759	0,57
367,023	0,57
367,288	4,17
367,553	4,77
367,818	7,17
368,082	5,97
368,347	8,57
368,612	2,97
368,877	9,37
369,141	4,77
369,406	1,57
369,671	1,97
369,935	-0,03
370,2	2,57
370,465	7,57
370,729	7,57
370,994	10,37
371,258	7,77
371,523	8,37
371,788	5,97
372,052	4,57
372,317	4,37
372,581	3,77
372,846	5,37
373,111	8,57
373,375	9,37
373,64	12,57
373,904	2,77
374,169	6,77
374,433	0,77
374,698	1,17
374,962	3,17
375,227	3,57
375,491	-0,03
375,756	2,17
376,02	5,57
376,284	4,17
376,549	-7,23
376,813	-3,23
377,078	0,17
377,342	-1,43
377,606	6,37
377,871	5,57
378,135	3,77
378,4	5,57
378,664	5,77
378,928	2,77
379,193	5,17
379,457	6,17
379,721	3,77
379,986	6,57
380,25	1,37
380,514	4,97
380,778	7,97
381,043	3,37
381,307	9,17
381,571	7,97
381,835	6,37
382,1	7,77
382,364	8,97
382,628	6,57
382,892	9,17
383,157	6,37
383,421	1,57
383,685	4,17
383,949	3,17
384,213	2,77
384,477	5,17
384,741	2,97
385,006	8,37
385,27	8,97
385,534	9,37
385,798	6,97
386,062	3,17
386,326	3,17
386,59	6,57
386,854	3,57
387,118	3,17
387,382	7,97
387,646	15,57
387,91	12,17
388,174	5,77
388,438	4,77
388,702	4,77
388,966	4,77
389,23	12,97
389,494	13,57
389,758	13,37
390,022	9,77
390,286	10,17
390,55	-0,03
390,814	0,97
391,078	-3,63
391,342	-1,43
391,606	10,17
391,87	11,97
392,133	6,17
392,397	2,37
392,661	3,37
392,925	1,57
393,189	8,17
393,453	6,17
393,716	10,17
393,98	6,97
394,244	5,17
394,508	11,57
394,772	8,17
395,035	7,77
395,299	6,57
395,563	9,17
395,827	13,17
396,09	6,77
396,354	6,57
396,618	6,97
396,882	12,77
397,145	6,37
397,409	0,57
397,673	12,57
397,936	14,17
398,2	10,97
398,464	7,37
398,727	5,77
398,991	12,77
399,254	10,37
399,518	11,97
399,782	11,97
400,045	12,77
400,309	11,37
400,572	8,77
400,836	3,17
401,099	8,17
401,363	19,17
401,627	14,37
401,89	16,37
402,154	13,77
402,417	13,17
402,681	7,37
402,944	19,57
403,208	19,17
403,471	16,77
403,734	15,77
403,998	13,57
404,261	16,97
404,525	17,57
404,788	13,97
405,052	11,57
405,315	8,97
405,578	12,37
405,842	19,97
406,105	21,97
406,368	20,37
406,632	19,97
406,895	17,97
407,159	18,77
407,422	24,77
407,685	25,97
407,948	21,37
408,212	21,17
408,475	22,77
408,738	25,17
409,002	26,97
409,265	28,37
409,528	29,57
409,791	29,37
410,055	31,57
410,318	25,57
410,581	26,77
410,844	31,97
411,107	33,97
411,371	33,37
411,634	37,57
411,897	38,77
412,16	36,57
412,423	39,77
412,686	44,57
412,95	45,97
413,213	45,97
413,476	45,97
413,739	52,77
414,002	53,37
414,265	52,57
414,528	48,97
414,791	60,37
415,054	62,97
415,317	68,57
415,58	70,77
415,843	72,57
416,106	74,77
416,369	77,97
416,632	78,17
416,895	85,97
417,158	87,97
417,421	91,57
417,684	93,77
417,947	95,57
418,21	102,17
418,473	104,77
418,736	110,57
418,999	114,97
419,262	126,37
419,525	137,17
419,788	139,77
420,05	146,37
420,313	155,97
420,576	152,17
420,839	161,97
421,102	178,37
421,365	186,57
421,627	197,57
421,89	207,57
422,153	219,17
422,416	220,17
422,679	226,97
422,941	243,57
423,204	264,17
423,467	274,57
423,73	283,37
423,992	289,57
424,255	305,57
424,518	330,17
424,781	351,97
425,043	368,17
425,306	385,37
425,569	397,97
425,831	428,57
426,094	437,37
426,357	464,57
426,619	487,57
426,882	520,57
427,145	548,37
427,407	585,17
427,67	599,17
427,932	623,97
428,195	654,57
428,458	669,57
428,72	703,97
428,983	756,57
429,245	785,77
429,508	825,57
429,77	852,77
430,033	888,97
430,295	955,57
430,558	1006,17
430,82	1024,97
431,083	1072,17
431,345	1130,37
431,608	1164,37
431,87	1203,37
432,133	1268,37
432,395	1326,57
432,657	1401,37
432,92	1434,37
433,182	1467,97
433,445	1552,37
433,707	1627,37
433,969	1698,37
434,232	1738,77
434,494	1794,17
434,757	1875,37
435,019	1946,17
435,281	2016,17
435,544	2103,77
435,806	2129,57
436,068	2226,17
436,33	2322,37
436,593	2404,77
436,855	2477,57
437,117	2563,57
437,38	2681,77
437,642	2774,17
437,904	2851,37
438,166	2912,77
438,428	3046,17
438,691	3148,77
438,953	3213,97
439,215	3308,17
439,477	3374,77
439,739	3547,77
440,002	3671,57
440,264	3709,97
440,526	3818,77
440,788	3919,57
441,05	4095,37
441,312	4176,57
441,574	4261,97
441,837	4380,77
442,099	4478,37
442,361	4650,37
442,623	4749,77
442,885	4908,77
443,147	4879,77
443,409	5106,57
443,671	5240,97
443,933	5336,17
444,195	5515,17
444,457	5658,37
444,719	5751,97
444,981	5828,77
445,243	5945,37
445,505	6131,77
445,767	6085,77
446,029	6272,37
446,291	6333,77
446,553	6484,97
446,815	6612,97
447,077	6831,77
447,339	6869,77
447,6	6919,17
447,862	7027,77
448,124	7180,97
448,386	7270,37
448,648	7410,97
448,91	7498,77
449,172	7465,37
449,433	7634,77
449,695	7610,77
449,957	7682,57
450,219	7842,37
450,481	7934,37
450,742	7850,77
451,004	8032,17
451,266	8174,57
451,528	8172,17
451,789	8105,57
452,051	8207,57
452,313	8315,97
452,575	8448,97
452,836	8437,57
453,098	8294,17
453,36	8251,97
453,621	8245,57
453,883	8345,97
454,145	8264,97
454,406	8133,77
454,668	8397,17
454,93	8273,17
455,191	8139,97
455,453	8138,77
455,715	8119,77
455,976	7952,77
456,238	8039,37
456,499	8048,37
456,761	7996,37
457,022	7916,37
457,284	7792,17
457,546	7721,97
457,807	7584,17
458,069	7630,97
458,33	7478,17
458,592	7451,57
458,853	7371,57
459,115	7280,57
459,376	7167,97
459,638	7073,97
459,899	6928,57
460,161	6844,77
460,422	6708,17
460,683	6641,37
460,945	6589,57
461,206	6431,37
461,468	6264,77
461,729	6206,17
461,99	6169,37
462,252	5974,37
462,513	5898,37
462,775	5708,17
463,036	5728,57
463,297	5588,77
463,559	5501,17
463,82	5345,77
464,081	5313,17
464,342	5211,17
464,604	5090,37
464,865	4982,17
465,126	4935,37
465,388	4775,57
465,649	4716,17
465,91	4662,37
466,171	4611,77
466,433	4493,77
466,694	4452,97
466,955	4327,17
467,216	4286,97
467,477	4131,97
467,739	4083,37
468	4022,17
468,261	3878,57
468,522	3801,17
468,783	3758,77
469,044	3704,77
469,306	3685,57
469,567	3581,97
469,828	3523,57
470,089	3462,57
470,35	3385,77
470,611	3323,57
470,872	3249,97
471,133	3169,37
471,394	3095,17
471,655	3057,57
471,916	3022,57
472,177	2960,57
472,438	2871,77
472,699	2815,17
472,96	2769,17
473,221	2724,57
473,482	2640,17
473,743	2635,17
474,004	2593,37
474,265	2506,97
474,526	2415,57
474,787	2392,17
475,048	2321,57
475,309	2303,37
475,57	2270,37
475,831	2191,17
476,092	2147,37
476,352	2124,97
476,613	2058,97
476,874	2014,37
477,135	2002,57
477,396	1947,17
477,657	1904,17
477,918	1853,97
478,178	1812,17
478,439	1765,17
478,7	1754,17
478,961	1724,57
479,222	1711,37
479,482	1646,57
479,743	1624,77
480,004	1621,97
480,265	1595,77
480,525	1549,77
480,786	1550,37
481,047	1509,57
481,307	1468,97
481,568	1472,77
481,829	1450,17
482,089	1419,17
482,35	1410,97
482,611	1399,97
482,871	1377,17
483,132	1366,77
483,393	1367,17
483,653	1366,17
483,914	1341,97
484,175	1330,57
484,435	1329,77
484,696	1329,17
484,956	1307,57
485,217	1310,37
485,477	1303,77
485,738	1310,97
485,999	1304,97
486,259	1290,57
486,52	1293,37
486,78	1309,57
487,041	1328,97
487,301	1336,57
487,562	1345,37
487,822	1348,57
488,083	1354,37
488,343	1362,37
488,603	1381,57
488,864	1399,37
489,124	1415,37
489,385	1412,57
489,645	1441,97
489,906	1480,97
490,166	1486,17
490,426	1495,97
490,687	1530,97
490,947	1539,57
491,207	1570,57
491,468	1598,37
491,728	1633,37
491,988	1673,17
492,249	1708,37
492,509	1718,57
492,769	1759,77
493,03	1793,37
493,29	1826,17
493,55	1861,17
493,81	1900,77
494,071	1943,57
494,331	1992,77
494,591	2041,57
494,851	2080,57
495,112	2119,77
495,372	2162,37
495,632	2225,97
495,892	2292,77
496,152	2337,77
496,413	2389,37
496,673	2440,37
496,933	2473,77
497,193	2539,37
497,453	2613,77
497,713	2672,37
497,973	2729,37
498,234	2787,77
498,494	2859,97
498,754	2921,77
499,014	2971,57
499,274	3026,97
499,534	3103,17
499,794	3146,77
500,054	3206,17
500,314	3286,37
500,574	3352,57
500,834	3413,17
501,094	3489,57
501,354	3557,37
501,614	3617,77
501,874	3657,17
502,134	3735,57
502,394	3794,17
502,654	3853,77
502,914	3930,57
503,174	3987,57
503,434	4066,37
503,694	4143,17
503,954	4194,77
504,213	4262,17
504,473	4300,57
504,733	4349,97
504,993	4415,77
505,253	4460,57
505,513	4522,17
505,773	4573,97
506,033	4641,57
506,292	4653,37
506,552	4697,97
506,812	4752,57
507,072	4815,77
507,332	4839,97
507,591	4867,77
507,851	4916,57
508,111	4954,57
508,371	4964,77
508,63	5005,17
508,89	5011,37
509,15	5048,57
509,41	5114,37
509,669	5106,37
509,929	5100,57
510,189	5124,57
510,448	5136,97
510,708	5178,57
510,968	5175,37
511,227	5133,37
511,487	5159,37
511,747	5156,37
512,006	5134,57
512,266	5143,37
512,525	5120,77
512,785	5105,57
513,045	5125,37
513,304	5087,17
513,564	5056,57
513,823	5041,37
514,083	5035,57
514,342	5001,17
514,602	5001,57
514,861	4969,17
515,121	4915,77
515,38	4877,37
515,64	4835,37
515,899	4809,57
516,159	4773,77
516,418	4746,97
516,678	4701,77
516,937	4648,77
517,197	4609,17
517,456	4579,97
517,716	4528,97
517,975	4469,77
518,234	4458,97
518,494	4408,97
518,753	4364,37
519,013	4302,17
519,272	4256,57
519,531	4206,57
519,791	4147,37
520,05	4078,77
520,309	4060,37
520,569	4013,97
520,828	3954,77
521,087	3903,37
521,347	3860,37
521,606	3797,57
521,865	3764,97
522,124	3731,57
522,384	3691,37
522,643	3620,77
522,902	3558,77
523,161	3527,77
523,421	3497,17
523,68	3465,37
523,939	3418,57
524,198	3379,37
524,457	3322,57
524,717	3274,57
524,976	3224,37
525,235	3191,17
525,494	3154,97
525,753	3094,37
526,012	3069,57
526,272	3051,37
526,531	2986,37
526,79	2940,37
527,049	2898,17
527,308	2883,37
527,567	2844,17
527,826	2788,57
528,085	2753,97
528,344	2731,77
528,603	2715,57
528,862	2687,17
529,121	2644,57
529,38	2605,97
529,639	2586,97
529,898	2545,17
530,157	2499,37
530,416	2475,77
530,675	2455,37
530,934	2408,97
531,193	2398,97
531,452	2375,97
531,711	2342,37
531,97	2311,57
532,229	2294,97
532,488	2257,77
532,747	2220,77
533,006	2190,17
533,264	2170,37
533,523	2137,17
533,782	2127,37
534,041	2103,37
534,3	2084,37
534,559	2049,77
534,818	2028,17
535,076	2013,97
535,335	1975,17
535,594	1943,77
535,853	1937,77
536,112	1902,97
536,37	1867,97
536,629	1841,97
536,888	1817,97
537,147	1786,97
537,405	1780,37
537,664	1750,17
537,923	1722,17
538,181	1698,17
538,44	1665,37
538,699	1654,37
538,957	1646,17
539,216	1612,77
539,475	1565,97
539,733	1553,17
539,992	1538,37
540,251	1515,97
540,509	1497,77
540,768	1466,37
541,027	1434,37
541,285	1422,77
541,544	1401,97
541,802	1383,57
542,061	1351,77
542,32	1317,97
542,578	1314,37
542,837	1299,17
543,095	1273,17
543,354	1254,17
543,612	1246,57
543,871	1221,97
544,129	1189,57
544,388	1172,37
544,646	1160,17
544,905	1140,97
545,163	1123,77
545,422	1099,37
545,68	1090,77
545,938	1069,57
546,197	1049,37
546,455	1033,97
546,714	1021,97
546,972	995,17
547,23	971,37
547,489	952,77
547,747	937,37
548,006	928,57
548,264	913,77
548,522	892,57
548,781	878,97
549,039	863,57
549,297	847,57
549,556	826,77
549,814	826,97
550,072	811,97
550,33	798,17
550,589	783,77
550,847	776,37
551,105	748,77
551,364	739,37
551,622	711,57
551,88	702,57
552,138	693,37
552,396	684,17
552,655	663,57
552,913	649,37
553,171	648,97
553,429	639,97
553,687	618,97
553,946	611,57
554,204	594,17
554,462	589,97
554,72	578,57
554,978	564,37
555,236	555,17
555,494	537,77
555,752	535,77
556,01	532,37
556,269	518,17
556,527	504,97
556,785	488,17
557,043	484,17
557,301	475,97
557,559	467,37
557,817	453,17
558,075	449,77
558,333	446,57
558,591	433,57
558,849	428,37
559,107	422,57
559,365	420,17
559,623	405,37
559,881	395,57
560,139	388,97
560,397	383,37
560,654	369,57
560,912	360,37
561,17	363,37
561,428	353,77
561,686	336,97
561,944	338,77
562,202	334,57
562,46	326,37
562,718	323,17
562,975	318,97
563,233	310,17
563,491	299,97
563,749	292,77
564,007	284,17
564,264	286,57
564,522	275,37
564,78	263,97
565,038	268,57
565,296	264,77
565,553	251,17
565,811	252,37
566,069	252,37
566,326	247,77
566,584	239,57
566,842	235,77
567,1	233,17
567,357	230,97
567,615	227,37
567,873	219,17
568,13	214,37
568,388	209,57
568,646	205,37
568,903	208,37
569,161	205,77
569,419	198,77
569,676	199,37
569,934	195,97
570,191	193,97
570,449	184,57
570,706	171,17
570,964	174,77
571,222	179,77
571,479	171,37
571,737	171,17
571,994	169,77
572,252	165,97
572,509	160,37
572,767	161,57
573,024	163,97
573,282	156,17
573,539	156,77
573,797	153,57
574,054	150,97
574,312	147,17
574,569	150,77
574,826	147,77
575,084	148,37
575,341	143,37
575,599	138,57
575,856	138,57
576,113	139,17
576,371	135,57
576,628	129,37
576,886	131,17
577,143	132,37
577,4	129,37
577,658	128,37
577,915	133,17
578,172	127,57
578,43	125,77
578,687	126,17
578,944	129,57
579,201	116,17
579,459	116,57
579,716	119,97
579,973	124,97
580,23	120,97
580,488	118,57
580,745	118,37
581,002	113,17
581,259	116,37
581,516	115,97
581,774	115,37
582,031	113,37
582,288	115,17
582,545	117,57
582,802	114,57
583,059	112,77
583,317	113,97
583,574	108,57
583,831	104,37
584,088	109,17
584,345	104,77
584,602	109,57
584,859	111,37
585,116	112,97
585,373	104,77
585,63	105,17
585,888	112,37
586,145	114,17
586,402	109,37
586,659	109,37
586,916	111,97
587,173	106,77
587,43	107,77
587,687	106,77
587,944	108,37
588,201	111,77
588,457	115,17
588,714	106,57
588,971	113,97
589,228	109,77
589,485	110,97
589,742	114,37
589,999	114,37
590,256	118,17
590,513	118,37
590,77	115,37
591,027	118,97
591,283	119,57
591,54	120,77
591,797	127,17
592,054	129,37
592,311	121,57
592,568	122,37
592,824	124,77
593,081	135,77
593,338	135,17
593,595	129,17
593,852	129,17
594,108	128,97
594,365	130,97
594,622	143,37
594,879	142,17
595,135	135,97
595,392	144,57
595,649	149,57
595,905	154,57
596,162	157,97
596,419	155,17
596,675	163,77
596,932	165,17
597,189	165,97
597,445	168,17
597,702	166,37
597,959	178,77
598,215	183,97
598,472	186,57
598,729	181,77
598,985	188,57
599,242	188,57
599,498	190,97
599,755	196,37
600,011	199,77
600,268	208,77
600,524	209,37
600,781	212,77
601,038	220,97
601,294	226,17
601,551	232,77
601,807	233,97
602,064	251,17
602,32	249,97
602,576	254,77
602,833	259,77
603,089	261,97
603,346	273,77
603,602	285,97
603,859	284,17
604,115	292,77
604,372	297,37
604,628	297,17
604,884	307,57
605,141	325,97
605,397	335,17
605,653	339,77
605,91	355,17
606,166	358,77
606,422	364,17
606,679	372,77
606,935	375,17
607,191	391,77
607,448	392,37
607,704	396,17
607,96	415,37
608,217	422,17
608,473	436,77
608,729	444,77
608,985	460,17
609,242	469,17
609,498	481,97
609,754	498,37
610,01	510,37
610,266	522,57
610,523	541,17
610,779	554,17
611,035	567,17
611,291	581,97
611,547	587,97
611,803	606,17
612,06	633,57
612,316	647,77
612,572	656,77
612,828	668,77
613,084	686,57
613,34	704,17
613,596	719,97
613,852	737,97
614,108	761,97
614,364	765,37
614,621	782,37
614,877	810,97
615,133	826,17
615,389	852,77
615,645	870,77
615,901	895,37
616,157	907,17
616,413	924,57
616,669	933,37
616,925	964,37
617,181	979,97
617,437	998,17
617,692	1031,77
617,948	1039,57
618,204	1046,57
618,46	1065,97
618,716	1097,97
618,972	1130,17
619,228	1153,37
619,484	1178,57
619,74	1195,17
619,996	1223,77
620,251	1240,17
620,507	1257,17
620,763	1287,37
621,019	1300,77
621,275	1326,97
621,531	1350,37
621,786	1377,37
622,042	1403,97
622,298	1425,37
622,554	1442,97
622,81	1458,97
623,065	1481,57
623,321	1513,97
623,577	1527,97
623,833	1557,77
624,088	1571,97
624,344	1600,57
624,6	1627,37
624,855	1635,97
625,111	1657,17
625,367	1670,97
625,622	1684,17
625,878	1713,37
626,134	1728,57
626,389	1753,37
626,645	1768,37
626,901	1769,37
627,156	1794,97
627,412	1805,37
627,668	1821,97
627,923	1834,57
628,179	1845,37
628,434	1853,97
628,69	1856,77
628,945	1870,37
629,201	1873,97
629,457	1885,97
629,712	1889,37
629,968	1902,17
630,223	1909,77
630,479	1889,97
630,734	1902,17
630,99	1904,77
631,245	1891,97
631,501	1887,57
631,756	1862,17
632,011	1849,97
632,267	1856,37
632,522	1843,77
632,778	1820,57
633,033	1812,37
633,289	1804,37
633,544	1793,97
633,799	1762,97
634,055	1745,77
634,31	1726,57
634,566	1700,57
634,821	1684,37
635,076	1669,37
635,332	1649,37
635,587	1612,97
635,842	1585,97
636,098	1577,97
636,353	1537,77
636,608	1495,57
636,863	1483,57
637,119	1452,37
637,374	1419,97
637,629	1386,77
637,885	1353,97
638,14	1327,97
638,395	1302,77
638,65	1271,77
638,905	1241,97
639,161	1208,17
639,416	1167,57
639,671	1135,77
639,926	1117,37
640,181	1093,97
640,437	1051,57
640,692	1017,57
640,947	988,97
641,202	963,97
641,457	949,17
641,712	917,37
641,967	891,57
642,222	869,17
642,478	849,77
642,733	817,77
642,988	790,57
643,243	768,17
643,498	742,37
643,753	716,57
644,008	690,97
644,263	680,57
644,518	654,77
644,773	642,17
645,028	616,17
645,283	586,17
645,538	571,77
645,793	558,77
646,048	541,77
646,303	523,17
646,558	505,57
646,813	492,17
647,068	479,57
647,323	457,97
647,578	433,77
647,833	425,57
648,087	410,77
648,342	395,77
648,597	385,57
648,852	362,17
649,107	345,37
649,362	335,37
649,617	321,97
649,872	316,57
650,126	306,97
650,381	293,37
650,636	282,37
650,891	273,57
651,146	261,57
651,4	244,17
651,655	238,97
651,91	233,17
652,165	226,97
652,419	209,57
652,674	204,77
652,929	201,57
653,184	187,37
653,438	181,37
653,693	173,37
653,948	172,17
654,202	175,17
654,457	160,97
654,712	152,17
654,967	147,97
655,221	141,37
655,476	127,57
655,73	127,57
655,985	122,57
656,24	119,77
656,494	110,37
656,749	109,17
657,004	105,17
657,258	104,37
657,513	95,57
657,767	91,97
658,022	88,37
658,276	83,17
658,531	79,57
658,785	80,17
659,04	79,57
659,295	73,77
659,549	77,57
659,804	71,37
660,058	68,17
660,312	65,37
660,567	63,77
660,821	63,17
661,076	66,17
661,33	59,77
661,585	63,77
661,839	61,37
662,094	53,97
662,348	49,57
662,602	46,37
662,857	51,37
663,111	52,97
663,366	47,17
663,62	48,77
663,874	41,37
664,129	41,37
664,383	39,17
664,637	41,77
664,892	45,77
665,146	42,77
665,4	42,57
665,655	31,97
665,909	31,97
666,163	35,57
666,417	32,97
666,672	29,17
666,926	31,37
667,18	36,57
667,435	26,97
667,689	30,37
667,943	32,57
668,197	37,57
668,451	30,17
668,706	25,97
668,96	25,97
669,214	30,97
669,468	33,57
669,722	26,57
669,976	21,97
670,231	24,57
670,485	29,57
670,739	23,57
670,993	21,37
671,247	30,37
671,501	26,77
671,755	24,97
672,009	23,97
672,263	31,97
672,517	26,17
672,772	24,77
673,026	21,57
673,28	22,37
673,534	19,97
673,788	22,37
674,042	19,97
674,296	21,77
674,55	20,77
674,804	19,97
675,058	27,97
675,312	24,37
675,566	18,97
675,82	23,97
676,074	18,37
676,327	16,77
676,581	18,77
676,835	20,77
677,089	23,37
677,343	20,97
677,597	16,37
677,851	21,17
678,105	26,17
678,359	22,97
678,612	18,77
678,866	18,97
679,12	16,77
679,374	16,77
679,628	18,57
679,882	12,37
680,135	13,57
680,389	20,57
680,643	18,37
680,897	14,37
681,151	15,57
681,404	22,77
681,658	15,77
681,912	20,97
682,166	21,97
682,419	24,77
682,673	17,37
682,927	20,97
683,18	19,37
683,434	16,97
683,688	15,97
683,942	20,77
684,195	15,97
684,449	16,97
684,703	21,77
684,956	17,17
685,21	20,17
685,463	24,57
685,717	19,17
685,971	17,57
686,224	11,77
686,478	13,97
686,731	12,37
686,985	17,17
687,239	15,37
687,492	16,57
687,746	16,77
687,999	16,37
688,253	16,77
688,506	13,77
688,76	15,37
689,013	19,37
689,267	21,17
689,52	15,37
689,774	13,97
690,027	11,17
690,281	17,57
690,534	15,77
690,788	19,37
691,041	18,97
691,294	12,37
691,548	13,57
691,801	16,77
692,055	19,77
692,308	15,57
692,561	17,97
692,815	15,17
693,068	12,17
693,322	13,17
693,575	14,97
693,828	14,77
694,082	14,57
694,335	12,97
694,588	16,57
694,841	16,37
695,095	21,37
695,348	19,37
695,601	20,37
695,855	18,77
696,108	14,77
696,361	16,17
696,614	14,57
696,868	17,97
697,121	19,97
697,374	11,77
697,627	13,97
697,88	11,77
698,134	14,17
698,387	17,57
698,64	16,37
698,893	11,97
699,146	14,97
699,4	11,57
699,653	13,17
699,906	15,37
700,159	13,77
700,412	15,57
700,665	19,57
700,918	24,57
701,171	13,37
701,424	11,97
701,677	13,97
701,931	9,97
702,184	10,77
702,437	21,57
702,69	15,57
702,943	18,97
703,196	16,37
703,449	13,97
703,702	14,97
703,955	9,37
704,208	14,77
704,461	16,57
704,714	15,97
704,967	9,57
705,22	10,57
705,473	16,17
705,726	16,37
705,978	18,97
706,231	16,57
706,484	19,17
706,737	14,37
706,99	11,17
707,243	13,37
707,496	13,77
707,749	15,97
708,002	17,77
708,254	19,97
708,507	17,37
708,76	13,17
709,013	16,57
709,266	18,17
709,519	14,97
709,771	11,57
710,024	15,57
710,277	15,17
710,53	16,97
710,782	12,77
711,035	10,77
711,288	13,17
711,541	10,97
711,793	14,77
712,046	14,57
712,299	17,57
712,552	16,37
712,804	14,57
713,057	17,17
713,31	13,57
713,562	12,77
713,815	18,77
714,068	17,57
714,32	19,17
714,573	23,97
714,826	20,17
715,078	15,77
715,331	13,57
715,583	14,77
715,836	14,17
716,089	13,37
716,341	17,57
716,594	14,97
716,846	15,37
717,099	9,57
717,351	12,77
717,604	10,97
717,856	13,37
718,109	12,57
718,361	14,77
718,614	11,77
718,866	19,77
719,119	18,77
719,371	14,57
719,624	18,57
719,876	17,37
720,129	15,97
720,381	15,17
720,634	14,97
720,886	14,37
721,138	17,17
721,391	19,37
721,643	15,97
721,896	20,57
722,148	17,57
722,4	19,17
722,653	16,77
722,905	15,57
723,157	16,17
723,41	15,77
723,662	17,57
723,914	12,17
724,167	10,57
724,419	9,77
724,671	12,17
724,924	16,57
725,176	12,57
725,428	17,57
725,68	16,37
725,933	16,17
726,185	19,17
726,437	21,37
726,689	21,37
726,942	18,37
727,194	12,37
727,446	16,97
727,698	18,17
727,95	21,57
728,203	19,97
728,455	15,77
728,707	15,17
728,959	18,77
729,211	6,97
729,463	9,37
729,715	11,97
729,968	18,37
730,22	13,37
730,472	15,97
730,724	15,97
730,976	13,77
731,228	11,57
731,48	20,17
731,732	17,17
731,984	13,97
732,236	14,37
732,488	15,17
732,74	13,57
732,992	18,57
733,244	16,77
733,496	11,97
733,748	14,57
734	21,17
734,252	19,37
734,504	17,97
734,756	14,77
735,008	17,97
735,26	19,57
735,512	13,57
735,764	7,77
736,016	12,37
736,268	16,37
736,52	16,17
736,772	16,17
737,023	16,37
737,275	19,37
737,527	17,77
737,779	15,57
738,031	15,77
738,283	19,37
738,534	14,77
738,786	22,57
739,038	18,97
739,29	14,37
739,542	14,57
739,793	14,17
740,045	19,57
740,297	17,97
740,549	18,57
740,801	14,77
741,052	12,97
741,304	10,97
741,556	11,77
741,807	10,97
742,059	12,17
742,311	18,97
742,563	22,37
742,814	18,77
743,066	14,57
743,318	16,17
743,569	21,37
743,821	18,37
744,073	18,17
744,324	18,37
744,576	13,17
744,827	14,57
745,079	18,37
745,331	16,17
745,582	13,57
745,834	15,97
746,085	18,37
746,337	18,37
746,588	19,37
746,84	18,97
747,092	15,17
747,343	18,57
747,595	17,17
747,846	18,57
748,098	17,57
748,349	18,97
748,601	15,57
748,852	17,17
749,104	20,97
749,355	19,57
749,606	18,77
749,858	18,77
750,109	13,57
750,361	15,77
750,612	15,17
750,864	19,57
751,115	18,97
751,366	16,77
751,618	15,17
751,869	19,17
752,121	17,57
752,372	16,17
752,623	19,57
752,875	21,97
753,126	23,77
753,377	18,17
753,629	17,37
753,88	19,17
754,131	17,97
754,383	19,57
754,634	18,77
754,885	15,37
755,136	20,37
755,388	22,37
755,639	20,17
755,89	17,37
756,141	13,17
756,393	15,17
756,644	17,37
756,895	22,97
757,146	17,97
757,397	15,77
757,649	18,17
757,9	13,97
758,151	12,77
758,402	17,97
758,653	18,17
758,904	17,77
759,155	19,97
759,407	14,37
759,658	15,77
759,909	15,77
760,16	14,17
760,411	13,77
760,662	21,97
760,913	21,17
761,164	16,97
761,415	20,17
761,666	14,37
761,917	15,57
762,168	18,17
762,419	19,57
762,67	14,77
762,921	10,97
763,172	14,97
763,423	14,37
763,674	16,77
763,925	17,97
764,176	14,17
764,427	14,97
764,678	16,17
764,929	18,97
765,18	14,77
765,431	15,17
765,682	13,17
765,933	13,97
766,184	10,97
766,435	14,97
766,686	16,17
766,936	15,37
767,187	17,17
767,438	15,17
767,689	18,77
767,94	20,97
768,191	14,77
768,442	11,97
768,692	15,97
768,943	16,17
769,194	18,57
769,445	17,17
769,695	14,17
769,946	14,37
770,197	14,37
770,448	18,97
770,699	14,57
770,949	15,37
771,2	20,37
771,451	18,37
771,701	16,57
771,952	16,97
772,203	16,57
772,454	12,57
772,704	11,57
772,955	15,77
773,206	15,17
773,456	17,97
773,707	22,57
773,957	19,37
774,208	14,17
774,459	15,17
774,709	16,77
774,96	18,37
775,211	22,77
775,461	17,57
775,712	14,37
775,962	16,17
776,213	15,17
776,463	13,57
776,714	17,97
776,964	12,77
777,215	19,17
777,466	16,17
777,716	17,97
777,967	14,77
778,217	15,77
778,468	12,97
778,718	15,17
778,968	18,57
779,219	21,37
779,469	11,17
779,72	10,57
779,97	16,17
780,221	20,17
780,471	16,97
780,722	13,97
780,972	16,17
781,222	16,17
781,473	14,37
781,723	13,17
781,973	7,77
782,224	14,57
782,474	19,97
782,725	23,77
782,975	21,37
783,225	17,17
783,475	16,17
783,726	13,97
783,976	15,57
784,226	19,77
784,477	19,77
784,727	18,17
784,977	12,97
785,227	18,97
785,478	19,97
785,728	17,37
785,978	14,77
786,228	16,97
786,479	15,17
786,729	16,57
786,979	13,17
787,229	8,37
787,479	10,77
787,73	17,17
787,98	14,97
788,23	23,17
788,48	14,97
788,73	14,77
788,98	10,37
789,231	9,57
789,481	9,97
789,731	14,37
789,981	17,17
790,231	15,57
790,481	12,77
790,731	14,77
790,981	18,77
791,231	13,97
791,481	19,17
791,731	17,97
791,981	20,57
792,231	25,77
792,481	13,17
792,731	10,77
792,981	16,17
793,231	17,97
793,481	24,57
793,731	16,97
793,981	17,37
794,231	15,57
794,481	9,97
794,731	16,17
794,981	14,37
795,231	10,97
795,481	14,57
795,731	13,97
795,981	15,17
796,231	11,57
796,481	12,77
796,73	14,57
796,98	8,17
797,23	13,37
797,48	13,57
797,73	12,77
797,98	13,17
798,23	12,77
798,479	13,17
798,729	13,17
798,979	4,57
799,229	6,57
799,479	12,77
799,728	16,37
799,978	11,17
800,228	10,57
800,478	15,57
800,727	12,77
800,977	11,57
801,227	14,97
801,477	14,57
801,726	10,97
801,976	9,77
802,226	7,97
802,475	9,17
802,725	11,57
802,975	15,97
803,224	14,57
803,474	13,97
803,724	15,17
803,973	15,37
804,223	20,77
804,473	17,97
804,722	10,77
804,972	6,97
805,221	8,57
805,471	11,57
805,72	10,57
805,97	13,77
806,22	14,37
806,469	12,77
806,719	13,17
806,968	10,77
807,218	9,57
807,467	11,77
807,717	17,57
807,966	22,17
808,216	9,57
808,465	13,77
808,715	13,97
808,964	12,77
809,214	9,37
809,463	5,37
809,713	12,17
809,962	16,17
810,211	16,77
810,461	15,17
810,71	13,77
810,96	15,57
811,209	11,77
811,458	9,17
811,708	8,97
811,957	6,17
812,207	7,77
812,456	11,97
812,705	16,77
812,955	15,57
813,204	13,17
813,453	14,77
813,703	13,77
813,952	8,57
814,201	10,37
814,45	10,57
814,7	11,17
814,949	10,37
815,198	9,97
815,448	14,97
815,697	14,17
815,946	17,37
816,195	14,57
816,444	9,77
816,694	13,77
816,943	16,17
817,192	13,97
817,441	13,97
817,69	13,37
817,94	7,17
818,189	8,17
818,438	16,77
818,687	14,17
818,936	13,97
819,185	10,77
819,434	12,57
819,684	11,77
819,933	15,17
820,182	12,77
820,431	12,97
820,68	15,37
820,929	18,97
821,178	10,97
821,427	12,77
821,676	14,97
821,925	13,37
822,174	13,17
822,423	19,77
822,672	13,37
822,921	15,17
823,17	7,97
823,419	7,97
823,668	10,37
823,917	8,77
824,166	11,37
824,415	15,17
824,664	12,97
824,913	10,97
825,162	5,97
825,411	8,97
825,66	5,57
825,909	14,57
826,158	12,77
826,407	8,37
826,655	8,57
826,904	10,17
827,153	12,77
827,402	14,37
827,651	14,17
827,9	14,57
828,149	8,17
828,397	8,97
828,646	12,17
828,895	14,57
829,144	13,97
829,393	8,17
829,641	10,37
829,89	9,37
830,139	14,97
830,388	13,37
830,636	14,17
830,885	12,37
831,134	9,97
831,383	15,77
831,631	16,37
831,88	15,37
832,129	12,77
832,377	12,37
832,626	10,17
832,875	13,97
833,124	9,77
833,372	13,17
833,621	12,57
833,869	10,97
834,118	13,57
834,367	10,37
834,615	12,17
834,864	9,57
835,113	14,17
835,361	8,37
835,61	8,77
835,858	9,37
836,107	13,37
836,355	15,37
836,604	12,77
836,853	14,57
837,101	11,37
837,35	14,97
837,598	8,57
837,847	14,57
838,095	12,37
838,344	9,77
838,592	11,77
838,841	9,77
839,089	11,97
839,338	7,97
839,586	10,57
839,834	12,17
840,083	16,17
840,331	11,77
840,58	12,57
840,828	10,37
841,077	8,17
841,325	6,17
841,573	7,37
841,822	11,57
842,07	12,37
842,318	10,17
842,567	13,57
842,815	10,97
843,064	11,57
843,312	10,57
843,56	8,17
843,809	11,37
844,057	10,97
844,305	9,77
844,553	14,57
844,802	7,77
845,05	11,37
845,298	8,57
845,546	10,17
845,795	8,97
846,043	6,57
846,291	10,17
846,539	12,57
846,788	10,57
847,036	6,97
847,284	8,77
847,532	12,37
847,78	11,17
848,029	13,57
848,277	10,37
848,525	14,37
848,773	12,57
849,021	14,97
849,269	16,77
849,518	11,97
849,766	11,17
850,014	17,57
850,262	15,17
850,51	11,77
850,758	12,37
851,006	9,37
851,254	9,37
851,502	10,17
851,75	14,17
851,998	15,77
852,246	9,97
852,494	11,17
852,742	6,97
852,99	12,57
853,238	16,97
853,486	10,37
853,734	4,57
853,982	12,17
854,23	9,57
854,478	15,37
854,726	15,77
854,974	19,17
855,222	16,37
855,47	14,97
855,718	15,97
855,966	12,17
856,214	16,77
856,462	13,57
856,71	15,17
856,958	14,57
857,205	9,17
857,453	5,57
857,701	8,97
857,949	12,57
858,197	15,77
858,445	17,17
858,692	15,17
858,94	10,17
859,188	17,37
859,436	17,77
859,684	13,77
859,932	8,77
860,179	10,17
860,427	14,77
860,675	13,17
860,923	10,57
861,17	10,57
861,418	9,97
861,666	8,97
861,913	13,17
862,161	18,37
862,409	20,77
862,657	15,97
862,904	13,17
863,152	13,57
863,4	17,77
863,647	15,97
863,895	15,57
864,143	14,37
864,39	7,17
864,638	12,97
864,885	15,37
865,133	13,57
865,381	15,17
865,628	14,17
865,876	14,77
866,123	10,57
866,371	7,97
866,619	6,97
866,866	13,97
867,114	15,57
867,361	18,37
867,609	16,97
867,856	11,17
868,104	11,97
868,351	16,17
868,599	15,97
868,846	12,57
869,094	23,37
869,341	12,37
869,589	7,97
869,836	9,57
870,084	11,97
870,331	20,17
870,579	19,77
870,826	12,57
871,073	10,17
871,321	13,97
871,568	15,57
871,816	15,97
872,063	13,17
872,31	13,17
872,558	11,37
872,805	12,77
873,052	11,37
873,3	13,77
873,547	12,57
873,794	14,37
874,042	8,77
874,289	11,17
874,536	13,57
874,784	12,77
875,031	14,57
875,278	14,77
875,526	13,57
875,773	15,97
876,02	16,17
876,267	11,37
876,515	12,17
876,762	17,17
877,009	18,37
877,256	16,37
877,503	15,57
877,751	18,97
877,998	11,57
878,245	12,97
878,492	4,17
878,739	18,37
878,987	13,57
879,234	10,37
879,481	14,97
879,728	14,57
879,975	17,97
880,222	16,57
880,469	12,77
880,716	17,97
880,964	18,37
881,211	19,17
881,458	10,17
881,705	13,97
881,952	15,77
882,199	15,77
882,446	14,17
882,693	21,37
882,94	12,37
883,187	14,57
883,434	16,77
883,681	5,77
883,928	13,97
884,175	15,17
884,422	13,37
884,669	12,57
884,916	14,37
885,163	14,77
885,41	11,17
885,657	8,57
885,904	16,97
886,151	11,77
886,398	12,57
886,644	15,77
886,891	14,17
887,138	16,17
887,385	12,77
887,632	21,17
887,879	10,57
888,126	8,77
888,373	9,97
888,619	14,37
888,866	11,57
889,113	18,97
889,36	14,37
889,607	15,37
889,854	11,17
890,1	18,77
890,347	8,77
890,594	14,37
890,841	18,77
891,087	15,77
891,334	15,77
891,581	12,57
891,828	13,17
892,074	20,97
892,321	20,17
892,568	16,77
892,815	15,17
893,061	17,37
893,308	19,77
893,555	16,37
893,801	17,17
894,048	12,57
894,295	17,17
894,541	15,37
894,788	17,77
895,035	14,97
895,281	19,37
895,528	14,17
895,774	15,17
896,021	17,97
896,268	13,77
896,514	12,77
896,761	9,77
897,007	12,17
897,254	17,17
897,501	10,57
897,747	15,17
897,994	15,17
898,24	11,17
898,487	12,57
898,733	13,77
898,98	20,77
899,226	20,57
899,473	15,57
899,719	13,77
899,966	14,37
900,212	15,77
900,459	17,17
900,705	11,17
900,951	17,57
901,198	12,17
901,444	7,77
901,691	21,17
901,937	21,17
902,184	16,97
902,43	11,57
902,676	18,37
902,923	16,77
903,169	17,97
903,415	15,17
903,662	11,57
903,908	11,57
904,154	12,57
904,401	11,57
904,647	16,57
904,893	12,77
905,14	9,77
905,386	8,17
905,632	13,37
905,879	17,97
906,125	20,77
906,371	15,57
906,617	5,97
906,864	18,77
907,11	18,17
907,356	14,97
907,602	12,37
907,849	17,97
908,095	16,17
908,341	16,77
908,587	9,77
908,833	9,37
909,08	10,37
909,326	10,37
909,572	13,57
909,818	17,37
910,064	15,77
910,31	19,17
910,556	15,57
910,803	18,37
911,049	19,77
911,295	18,57
911,541	15,77
911,787	9,57
912,033	16,37
912,279	15,57
912,525	15,97
912,771	12,57
913,017	11,97
913,263	9,37
913,509	14,17
913,755	14,37
914,001	9,77
914,247	16,57
914,493	10,57
914,739	10,57
914,985	11,57
915,231	13,97
915,477	15,37
915,723	15,97
915,969	15,37
916,215	16,17
916,461	18,37
916,707	16,57
916,953	14,77
917,199	12,97
917,445	15,77
917,691	11,37
917,937	15,37
918,183	16,97
918,428	16,77
918,674	12,17
918,92	20,17
919,166	17,97
919,412	17,17
919,658	13,57
919,903	15,57
920,149	11,97
920,395	13,57
920,641	14,17
920,887	13,37
921,132	16,37
921,378	20,37
921,624	21,57
921,87	18,37
922,116	20,17
922,361	18,57
922,607	18,97
922,853	17,17
923,098	19,57
923,344	13,77
923,59	14,17
923,836	13,77
924,081	22,37
924,327	22,17
924,573	18,77
924,818	12,57
925,064	17,37
925,31	16,17
925,555	14,77
925,801	13,17
926,047	13,17
926,292	16,57
926,538	13,77
926,783	13,57
927,029	17,17
927,275	15,37
927,52	10,77
927,766	13,97
928,011	15,77
928,257	15,77
928,502	16,17
928,748	15,97
928,993	18,77
929,239	20,17
929,484	16,77
929,73	17,97
929,975	13,97
930,221	13,37
930,466	15,57
930,712	18,77
930,957	13,37
931,203	15,37
931,448	12,77
931,694	14,17
931,939	14,57
932,185	15,77
932,43	16,97
932,675	18,17
932,921	23,17
933,166	17,37
933,412	22,97
933,657	19,57
933,902	19,97
934,148	12,97
934,393	13,97
934,638	12,77
934,884	13,57
935,129	13,17
935,374	15,97
935,62	14,77
935,865	12,17
936,11	11,97
936,356	14,17
936,601	18,37
936,846	19,57
937,092	15,37
937,337	14,77
937,582	12,17
937,827	19,77
938,073	16,37
938,318	19,37
938,563	16,37
938,808	16,17
939,053	15,97
939,299	14,37
939,544	15,57
939,789	16,97
940,034	13,17
940,279	11,97
940,524	15,37
940,77	15,97
941,015	10,77
941,26	12,37
941,505	10,17
941,75	14,37
941,995	15,77
942,24	14,57
942,485	14,17
942,731	16,77
942,976	12,97
943,221	14,77
943,466	18,77
943,711	13,57
943,956	17,77
944,201	19,77
944,446	16,37
944,691	9,97
944,936	17,77
945,181	14,97
945,426	14,17
945,671	10,17
945,916	6,97
946,161	15,57
946,406	17,57
946,651	16,97
946,896	12,57
947,141	16,57
947,386	17,17
947,631	15,17
947,876	11,17
948,12	16,17
948,365	13,37
948,61	10,97
948,855	12,17
949,1	9,77
949,345	13,97
949,59	16,97
949,835	14,17
950,08	13,37
950,324	7,97
950,569	14,77
950,814	14,37
951,059	19,57
951,304	21,97
951,548	15,17
951,793	14,97
952,038	16,97
952,283	12,77
952,528	10,57
952,772	12,97
953,017	13,57
953,262	15,17
953,507	14,57
953,751	14,97
953,996	16,57
954,241	13,37
954,485	19,57
954,73	22,77
954,975	18,97
955,22	18,37
955,464	20,57
955,709	15,77
955,954	11,17
956,198	9,37
956,443	12,77
956,687	16,97
956,932	17,57
957,177	14,37
957,421	15,57
957,666	17,17
957,911	12,77
958,155	17,57
958,4	15,57
958,644	12,97
958,889	8,77
959,133	12,97
959,378	11,77
959,623	14,57
959,867	18,57
960,112	17,17
960,356	19,57
960,601	13,57
960,845	10,57
961,09	11,57
961,334	14,17
961,579	17,97
961,823	11,57
962,068	13,57
962,312	8,97
962,556	13,77
962,801	16,17
963,045	14,77
963,29	16,37
963,534	11,57
963,779	11,37
964,023	14,57
964,267	10,57
964,512	16,17
964,756	12,57
965,001	14,57
965,245	15,17
965,489	14,97
965,734	14,37
965,978	13,97
966,222	20,77
966,467	18,17
966,711	18,17
966,955	16,17
967,199	13,97
967,444	12,77
967,688	11,37
967,932	17,17
968,177	17,17
968,421	15,97
968,665	12,57
968,909	12,37
969,154	16,17
969,398	17,77
969,642	15,97
969,886	12,17
970,13	7,37
970,375	11,97
970,619	15,57
970,863	16,37
971,107	15,77
971,351	8,57
971,596	10,57
971,84	11,77
972,084	12,97
972,328	9,17
972,572	12,37
972,816	14,57
973,06	16,97
973,304	17,17
973,549	15,57
973,793	14,57
974,037	13,37
974,281	11,57
974,525	11,37
974,769	12,37
975,013	5,57
975,257	9,97
975,501	18,57
975,745	15,77
975,989	17,17
976,233	15,97
976,477	11,57
976,721	12,97
976,965	8,97
977,209	12,77
977,453	17,17
977,697	8,17
977,941	12,77
978,185	13,17
978,429	13,77
978,673	17,57
978,917	18,57
979,161	9,97
979,405	12,57
979,648	15,57
979,892	11,77
980,136	11,37
980,38	15,17
980,624	10,77
980,868	9,77
981,112	11,97
981,356	10,97
981,599	9,97
981,843	14,57
982,087	15,17
982,331	16,17
982,575	15,57
982,818	15,17
983,062	9,17
983,306	8,97
983,55	9,97
983,794	14,57
984,037	12,77
984,281	13,97
984,525	12,17
984,769	13,37
985,012	13,57
985,256	13,57
985,5	16,57
985,743	13,77
985,987	12,57
986,231	8,37
986,474	9,57
986,718	15,77
986,962	13,77
987,206	9,57
987,449	9,77
987,693	10,77
987,936	12,97
988,18	14,97
988,424	10,77
988,667	14,57
988,911	11,17
989,154	15,57
989,398	12,97
989,642	10,37
989,885	12,37
990,129	13,17
990,372	16,17
990,616	13,97
990,859	15,57
991,103	8,97
991,347	14,97
991,59	9,17
991,834	12,97
992,077	14,37
992,321	14,97
992,564	14,77
992,808	10,77
993,051	14,17
993,294	13,37
993,538	13,97
993,781	15,17
994,025	11,17
994,268	14,77
994,512	13,97
994,755	14,37
994,999	9,57
995,242	5,17
995,485	6,17
995,729	11,57
995,972	12,37
996,215	13,77
996,459	19,97
996,702	14,17
996,946	12,57
997,189	10,17
997,432	10,37
997,676	13,97
997,919	10,97
998,162	11,37
998,405	12,17
998,649	9,17
998,892	14,97
999,135	15,97
999,379	13,97
999,622	9,77
999,865	12,17
1000,108	12,97
1000,352	12,77
1000,595	11,97
1000,838	10,57
1001,081	8,37
1001,324	11,17
1001,568	9,77
1001,811	13,97
1002,054	12,17
1002,297	15,77
1002,54	12,77
1002,784	11,17
1003,027	7,77
1003,27	14,77
1003,513	14,57
1003,756	4,17
1003,999	8,37
1004,242	10,37
1004,486	12,77
1004,729	13,57
1004,972	11,17
1005,215	10,37
1005,458	12,97
1005,701	14,77
1005,944	10,37
1006,187	15,77
1006,43	10,57
1006,673	10,37
1006,916	12,37
1007,159	12,37
1007,402	12,37
1007,645	12,37
1007,888	10,97
1008,131	8,97
1008,374	9,57
1008,617	11,17
1008,86	14,97
1009,103	11,37
1009,346	18,17
1009,589	14,77
1009,832	13,57
1010,075	10,97
1010,318	8,37
1010,561	10,97
1010,804	8,77
1011,047	7,77
1011,289	15,77
1011,532	8,17
1011,775	11,77
1012,018	10,37
1012,261	12,17
1012,504	14,17
1012,747	12,57
1012,989	9,77
1013,232	11,57
1013,475	12,97
1013,718	20,77
1013,961	10,57
1014,204	11,17
1014,446	8,57
1014,689	5,17
1014,932	11,97
1015,175	13,17
1015,417	9,77
1015,66	9,77
1015,903	13,37
1016,146	7,97
1016,388	10,77
1016,631	10,37
1016,874	8,97
1017,117	8,97
1017,359	6,97
1017,602	6,77
1017,845	13,77
1018,087	15,17
1018,33	10,77
1018,573	7,97
1018,815	10,17
1019,058	13,17
1019,301	13,37
1019,543	8,57
1019,786	11,17
1020,028	7,77
1020,271	8,97
1020,514	13,37
1020,756	10,57
1020,999	12,77
1021,241	10,77
1021,484	11,17
1021,727	14,77
1021,969	10,77
1022,212	8,97
1022,454	13,77
1022,697	13,57
1022,939	13,77
1023,182	8,57
1023,424	6,77
1023,667	9,17
1023,909	7,37
1024,152	10,97
1024,394	15,97
1024,637	12,37
1024,879	18,17
1025,122	12,57
1025,364	12,77
1025,606	12,57
1025,849	8,97
1026,091	7,37
1026,334	9,17
1026,576	13,37
1026,819	7,37
1027,061	0,97
1027,303	6,57
1027,546	15,17
1027,788	10,17
1028,03	9,77
1028,273	10,17
1028,515	10,17
1028,757	15,77
1029	13,37
1029,242	11,37
1029,484	11,57
1029,727	11,17
1029,969	11,57
1030,211	11,97
1030,454	12,57
1030,696	9,77
1030,938	6,17
1031,18	5,57
1031,423	14,77
1031,665	13,17
1031,907	7,17
1032,149	6,77
1032,392	11,97
1032,634	10,17
1032,876	7,97
1033,118	7,37
1033,36	12,57
1033,603	14,37
1033,845	12,17
1034,087	12,37
1034,329	11,97
1034,571	12,77
1034,813	12,57
1035,056	13,37
1035,298	15,97
1035,54	15,97
1035,782	15,57
1036,024	10,57
1036,266	7,57
1036,508	10,37
1036,75	13,77
1036,992	9,17
1037,235	17,57
1037,477	10,77
1037,719	15,37
1037,961	13,37
1038,203	9,57
1038,445	7,17
1038,687	12,17
1038,929	12,97
1039,171	13,17
1039,413	12,77
1039,655	9,77
1039,897	7,97
1040,139	7,97
1040,381	8,37
1040,623	6,17
1040,865	12,77
1041,107	9,57
1041,349	15,57
1041,591	11,97
1041,832	10,37
1042,074	12,57
1042,316	8,77
1042,558	8,37
1042,8	5,77
1043,042	8,77
1043,284	12,77
1043,526	12,57
1043,768	11,57
1044,009	14,17
1044,251	15,77
1044,493	15,77
1044,735	9,57
1044,977	12,97
1045,219	10,97
1045,46	11,37
1045,702	8,77
1045,944	13,77
1046,186	11,77
1046,428	9,57
1046,669	12,17
1046,911	9,17
1047,153	5,37
1047,395	8,77
1047,636	5,37
1047,878	6,57
1048,12	11,17
1048,362	4,97
1048,603	7,37
1048,845	9,57
1049,087	9,17
1049,328	7,17
1049,57	10,77
1049,812	13,57
1050,053	9,37
1050,295	8,17
1050,537	11,77
1050,778	9,77
1051,02	10,17
1051,262	12,97
1051,503	8,17
1051,745	1,97
1051,987	2,57
1052,228	9,37
1052,47	14,77
1052,711	15,97
1052,953	15,57
1053,194	12,97
1053,436	15,37
1053,678	11,57
1053,919	9,37
1054,161	9,77
1054,402	10,77
1054,644	10,17
1054,885	9,77
1055,127	10,37
1055,368	9,97
1055,61	9,37
1055,851	14,17
1056,093	14,97
1056,334	12,77
1056,576	6,97
1056,817	13,37
1057,059	13,37
1057,3	11,77
1057,541	6,57
1057,783	7,97
1058,024	12,57
1058,266	12,37
1058,507	13,17
1058,748	15,57
1058,99	9,37
1059,231	6,37
1059,473	15,17
1059,714	9,37
1059,955	9,97
1060,197	10,37
1060,438	18,37
1060,679	18,17
1060,921	15,77
1061,162	9,17
1061,403	7,97
1061,645	9,17
1061,886	12,37
1062,127	15,97
1062,368	13,97
1062,61	11,17
1062,851	11,37
1063,092	10,97
1063,333	12,57
1063,575	11,57
1063,816	8,37
1064,057	11,57
1064,298	13,37
1064,54	16,37
1064,781	11,37
1065,022	6,77
1065,263	11,37
1065,504	12,97
1065,746	7,37
1065,987	11,37
1066,228	18,17
1066,469	10,57
1066,71	10,97
1066,951	8,57
1067,192	13,37
1067,434	14,57
1067,675	16,37
1067,916	15,77
1068,157	9,77
1068,398	7,37
1068,639	11,97
1068,88	9,97
1069,121	10,97
1069,362	13,97
1069,603	18,77
1069,844	22,17
1070,085	15,17
1070,326	13,37
1070,568	12,57
1070,809	11,37
1071,05	17,57
1071,291	15,77
1071,532	11,97
1071,773	10,77
1072,014	12,77
1072,254	13,97
1072,495	10,97
1072,736	14,17
1072,977	15,97
1073,218	15,77
1073,459	10,97
1073,7	10,57
1073,941	9,37
1074,182	11,57
1074,423	10,77
1074,664	11,77
1074,905	15,37
1075,146	16,37
1075,386	16,77
1075,627	15,77
1075,868	13,37
1076,109	13,97
1076,35	11,77
1076,591	12,57
1076,832	11,17
1077,072	15,37
1077,313	13,77
1077,554	11,17
1077,795	12,77
1078,036	11,57
1078,276	11,97
1078,517	12,37
1078,758	14,57
1078,999	8,77
1079,239	14,37
1079,48	10,37
1079,721	9,37
1079,962	11,77
1080,202	13,77
1080,443	13,77
1080,684	14,57
1080,924	15,77
1081,165	13,37
1081,406	8,37
1081,647	8,97
1081,887	9,37
1082,128	13,17
1082,369	11,17
1082,609	17,17
1082,85	16,57
1083,09	14,17
1083,331	13,97
1083,572	19,57
1083,812	15,77
1084,053	7,77
1084,293	11,97
1084,534	7,97
1084,775	14,57
1085,015	15,97
1085,256	13,57
1085,496	18,97
1085,737	15,57
1085,977	10,97
1086,218	17,17
1086,459	12,57
1086,699	11,57
1086,94	11,97
1087,18	15,17
1087,421	15,57
1087,661	13,77
1087,902	11,97
1088,142	14,77
1088,382	9,17
1088,623	15,77
1088,863	15,17
1089,104	17,97
1089,344	16,17
1089,585	13,57
1089,825	10,57
1090,066	12,97
1090,306	13,17
1090,546	15,77
1090,787	14,77
1091,027	15,57
1091,268	8,57
1091,508	17,77
1091,748	15,97
1091,989	13,97
1092,229	18,57
1092,469	16,17
1092,71	14,77
1092,95	14,97
1093,19	11,77
1093,431	13,97
1093,671	10,77
1093,911	8,77
1094,151	8,77
1094,392	15,17
1094,632	12,77
1094,872	9,37
1095,113	11,17
1095,353	11,97
1095,593	22,57
1095,833	11,17
1096,074	11,77
1096,314	8,57
1096,554	10,77
1096,794	15,17
1097,034	19,17
1097,275	12,77
1097,515	14,97
1097,755	15,97
1097,995	17,77
1098,235	14,37
1098,475	16,37
1098,716	11,77
1098,956	14,97
1099,196	14,57
1099,436	9,57
1099,676	17,57
1099,916	24,97
1100,156	21,37
1100,396	18,57
1100,636	19,77
1100,877	13,17
1101,117	12,57
1101,357	10,77
1101,597	14,17
1101,837	16,17
1102,077	19,17
1102,317	19,97
1102,557	9,77
1102,797	13,57
1103,037	12,37
1103,277	14,17
1103,517	11,17
1103,757	15,37
1103,997	12,37
1104,237	14,97
1104,477	16,77
1104,717	19,97
1104,957	9,17
1105,197	13,77
1105,437	15,77
1105,677	17,77
1105,917	13,77
1106,156	10,17
1106,396	12,17
1106,636	15,97
1106,876	17,17
1107,116	8,37
1107,356	11,77
1107,596	13,77
1107,836	14,97
1108,075	12,77
1108,315	14,57
1108,555	14,97
1108,795	7,57
1109,035	12,77
1109,275	13,77
1109,514	13,97
1109,754	9,37
1109,994	13,77
1110,234	15,17
1110,474	15,37
1110,713	19,57
1110,953	19,77
1111,193	15,77
1111,433	13,97
1111,672	11,57
1111,912	8,57
1112,152	11,97
1112,392	14,17
1112,631	14,17
1112,871	12,17
1113,111	14,37
1113,35	15,17
1113,59	17,77
1113,83	13,97
1114,07	14,17
1114,309	9,77
1114,549	16,17
1114,788	10,17
1115,028	13,37
1115,268	10,17
1115,507	10,77
1115,747	11,37
1115,987	18,17
1116,226	19,17
1116,466	10,17
1116,705	14,77
1116,945	14,17
1117,185	18,77
1117,424	18,37
1117,664	15,97
1117,903	15,37
1118,143	13,37
1118,382	14,97
1118,622	11,37
1118,861	12,97
1119,101	12,57
1119,34	13,77
1119,58	13,97
1119,819	6,77
1120,059	11,77
1120,298	15,37
1120,538	12,57
1120,777	10,97
1121,017	14,57
1121,256	15,17
1121,496	10,17
1121,735	8,37
1121,975	11,57
1122,214	13,17
1122,453	18,37
1122,693	14,37
1122,932	8,37
